  day sst(K) H(W/m2) LE(W/m2) TAU(m2/s2)
   274.000   301.718     8.792   102.328     0.000
   274.125   301.718     8.792   102.328     0.000
   274.250   302.093     7.918   100.666     0.000
   274.375   302.071     8.808   110.934     0.000
   274.500   301.706     7.513   109.520     0.000
   274.625   301.792     4.927   112.444     0.000
   274.750   301.796     6.644   111.425     0.000
   274.875   301.797    11.272   116.309     0.000
   275.000   301.799    14.096   120.773     0.000
   275.125   301.828    11.744   125.573     0.000
   275.250   301.955    10.084   129.132     0.000
   275.375   301.910    10.369   137.115     0.000
   275.500   301.814     9.471   136.467     0.000
   275.625   301.715     4.496   127.106     0.000
   275.750   301.719     5.805   125.452     0.000
   275.875   301.721     8.910   135.416     0.000
   276.000   301.724    11.362   146.036     0.000
   276.125   301.731     8.971   139.468     0.000
   276.250   301.843     7.504   143.341     0.000
   276.375   301.809     7.474   151.117     0.000
   276.500   301.722     6.174   150.793     0.000
   276.625   301.890     6.231   149.355     0.000
   276.750   301.889     5.882   145.088     0.000
   276.875   301.888     8.095   147.331     0.000
   277.000   301.881     9.993   147.977     0.000
   277.125   301.891     9.289   143.853     0.000
   277.250   302.059     8.458   141.611     0.000
   277.375   302.027     9.010   147.032     0.000
   277.500   301.879     7.936   140.221     0.000
   277.625   301.773     8.966   135.218     0.000
   277.750   301.761     9.019   122.821     0.000
   277.875   301.756    11.073   121.319     0.000
   278.000   301.748    11.828   126.028     0.000
   278.125   301.792     7.961   101.334     0.000
   278.250   302.242     7.450   102.444     0.000
   278.375   302.319     8.282   111.988     0.000
   278.500   301.785     6.188   108.783     0.000
   278.625   301.619     2.800    89.541     0.000
   278.750   301.612     3.013    86.305     0.000
   278.875   301.618     5.129    96.268     0.000
   279.000   301.622     7.083   106.680     0.000
   279.125   301.674     6.006   108.954     0.000
   279.250   301.931     6.107   115.370     0.000
   279.375   301.855     6.738   128.681     0.000
   279.500   301.661     5.418   131.108     0.000
   279.625   301.822     5.579   130.713     0.000
   279.750   301.821     6.314   123.719     0.000
   279.875   301.824     8.952   129.180     0.000
   280.000   301.824    10.767   134.034     0.000
   280.125   301.862     6.726   133.697     0.000
   280.250   302.077     6.649   130.642     0.000
   280.375   302.024     7.897   141.081     0.000
   280.500   301.848     6.758   134.811     0.000
   280.625   301.950     5.449   125.074     0.000
   280.750   301.951     5.808   118.568     0.000
   280.875   301.952     8.113   123.625     0.000
   281.000   301.950     9.927   127.124     0.000
   281.125   301.990     6.093   121.085     0.000
   281.250   302.241     6.346   127.006     0.000
   281.375   302.180     7.216   137.803     0.000
   281.500   301.977     5.826   136.501     0.000
   281.625   302.126     4.620   130.375     0.000
   281.750   302.126     5.309   127.256     0.000
   281.875   302.127     7.759   128.340     0.000
   282.000   302.127    10.011   132.424     0.000
   282.125   302.167    10.277   124.166     0.000
   282.250   302.426    10.074   129.222     0.000
   282.375   302.391    10.899   143.296     0.000
   282.500   302.154     9.199   142.073     0.000
   282.625   301.889     6.794   124.075     0.000
   282.750   301.897     7.195   126.863     0.000
   282.875   301.900     9.744   137.044     0.000
   283.000   301.897    11.743   146.765     0.000
   283.125   301.920     7.590   138.762     0.000
   283.250   302.096     7.038   140.060     0.000
   283.375   302.040     7.508   149.001     0.000
   283.500   301.919     6.553   144.839     0.000
   283.625   302.038     6.591   142.298     0.000
   283.750   302.038     7.410   137.495     0.000
   283.875   302.044    10.429   147.307     0.000
   284.000   302.041    12.707   156.723     0.000
   284.125   302.043    10.871   163.876     0.000
   284.250   302.198     9.300   161.188     0.000
   284.375   302.168     8.983   160.383     0.000
   284.500   302.050     8.809   156.719     0.000
   284.625   302.074     8.801   154.465     0.000
   284.750   302.070     9.991   137.998     0.000
   284.875   302.072    14.103   136.060     0.000
   285.000   302.071    17.675   145.692     0.000
   285.125   302.094    11.468   146.623     0.000
   285.250   302.245     9.545   149.839     0.000
   285.375   302.202     9.203   154.614     0.000
   285.500   302.101    10.166   151.766     0.000
   285.625   302.106    10.836   142.116     0.000
   285.750   302.097    12.760   132.038     0.000
   285.875   302.091    15.893   132.974     0.000
   286.000   302.087    17.047   136.555     0.000
   286.125   302.120     9.914   127.819     0.000
   286.250   302.368     9.408   123.064     0.000
   286.375   302.318    10.603   125.193     0.000
   286.500   302.108    10.356   119.395     0.000
   286.625   301.965     7.327    98.176     0.000
   286.750   301.969     7.885    95.027     0.000
   286.875   301.971    10.280   101.522     0.000
   287.000   301.967    11.719   104.874     0.000
   287.125   302.025     7.130    91.082     0.000
   287.250   302.512     8.315    92.819     0.000
   287.375   302.483    11.065   105.700     0.000
   287.500   302.015    10.326   103.727     0.000
   287.625   302.017     6.397    83.322     0.000
   287.750   302.016     7.257    82.635     0.000
   287.875   302.017     9.924    88.481     0.000
   288.000   302.018    13.122    98.807     0.000
   288.125   302.094    10.840    90.725     0.000
   288.250   302.503    12.251    97.522     0.000
   288.375   302.521    14.473   109.175     0.000
   288.500   302.045    12.000   101.895     0.000
   288.625   302.232     8.906    95.777     0.000
   288.750   302.233    10.114    94.940     0.000
   288.875   302.232    12.894   101.467     0.000
   289.000   302.226    16.252   109.460     0.000
   289.125   302.275    12.685    92.102     0.000
   289.250   302.691    14.227    99.317     0.000
   289.375   302.673    16.743   112.902     0.000
   289.500   302.278    16.563   115.398     0.000
   289.625   302.233    15.176   121.527     0.000
   289.750   302.225    14.222   115.638     0.000
   289.875   302.212    14.450   111.589     0.000
   290.000   302.207    14.716   111.659     0.000
   290.125   302.256    15.157   124.115     0.000
   290.250   302.556    14.784   123.922     0.000
   290.375   302.554    15.689   130.079     0.000
   290.500   302.277    14.706   123.547     0.000
   290.625   301.808     6.743    94.404     0.000
   290.750   301.809     9.013    93.395     0.000
   290.875   301.798    11.466    93.774     0.000
   291.000   301.785    12.490    90.041     0.000
   291.125   301.869    10.195    93.325     0.000
   291.250   302.316    10.157    96.480     0.000
   291.375   302.403    12.260   106.611     0.000
   291.500   301.920    13.397   103.931     0.000
   291.625   301.901    11.573   104.812     0.000
   291.750   301.887    13.034    96.206     0.000
   291.875   301.881    16.202    99.071     0.000
   292.000   301.876    17.945   102.201     0.000
   292.125   301.941    14.166   100.827     0.000
   292.250   302.248    14.891   105.497     0.000
   292.375   302.177    17.850   118.823     0.000
   292.500   301.931    18.360   122.115     0.000
   292.625   302.187    17.170   140.848     0.000
   292.750   302.185    17.712   133.098     0.000
   292.875   302.169    20.095   125.561     0.000
   293.000   302.144    19.168   113.059     0.000
   293.125   302.210    14.817   117.526     0.000
   293.250   302.570    14.830   112.805     0.000
   293.375   302.624    16.987   117.205     0.000
   293.500   302.295    15.912   111.730     0.000
   293.625   302.427    14.161   103.118     0.000
   293.750   302.421    14.815    99.074     0.000
   293.875   302.409    16.239    99.672     0.000
   294.000   302.403    17.387    99.940     0.000
   294.125   302.460    16.367   106.592     0.000
   294.250   302.848    14.958   105.225     0.000
   294.375   302.938    16.139   114.540     0.000
   294.500   302.512    16.188   112.199     0.000
   294.625   302.285    16.256   110.875     0.000
   294.750   302.275    16.077    99.110     0.000
   294.875   302.266    17.816    98.465     0.000
   295.000   302.267    19.247   101.495     0.000
   295.125   302.324    24.188   128.368     0.000
   295.250   302.486    24.003   123.610     0.000
   295.375   302.457    26.469   133.122     0.000
   295.500   302.310    25.116   131.666     0.000
   295.625   302.238    22.568   141.469     0.000
   295.750   302.234    20.671   136.860     0.000
   295.875   302.225    20.496   130.914     0.000
   296.000   302.217    20.002   125.627     0.000
   296.125   302.257    18.526   130.250     0.000
   296.250   302.525    18.241   123.385     0.000
   296.375   302.594    20.001   126.314     0.000
   296.500   302.292    18.931   122.555     0.000
   296.625   302.159    15.893   114.425     0.000
   296.750   302.155    16.554   110.560     0.000
   296.875   302.152    19.268   111.435     0.000
   297.000   302.142    19.516   110.714     0.000
   297.125   302.185    20.196   119.680     0.000
   297.250   302.408    18.052   110.593     0.000
   297.375   302.491    18.520   108.932     0.000
   297.500   302.231    16.805   101.773     0.000
   297.625   302.193    17.900   114.745     0.000
   297.750   302.194    16.703   111.821     0.000
   297.875   302.190    17.108   115.701     0.000
   298.000   302.190    17.790   118.969     0.000
   298.125   302.222    17.978   126.320     0.000
   298.250   302.382    17.421   122.569     0.000
   298.375   302.316    19.294   133.500     0.000
   298.500   302.220    19.002   138.386     0.000
   298.625   302.160    15.006   118.014     0.000
   298.750   302.164    16.756   114.980     0.000
   298.875   302.163    20.390   120.950     0.000
   299.000   302.163    22.533   124.466     0.000
   299.125   302.194    23.729   130.986     0.000
   299.250   302.379    23.243   129.230     0.000
   299.375   302.395    24.474   131.911     0.000
   299.500   302.197    25.114   132.012     0.000
   299.625   302.164    21.621   122.804     0.000
   299.750   302.159    20.651   116.149     0.000
   299.875   302.160    22.318   119.178     0.000
   300.000   302.165    24.153   127.124     0.000
   300.125   302.185    24.047   143.276     0.000
   300.250   302.272    23.281   143.373     0.000
   300.375   302.294    23.032   150.328     0.000
   300.500   302.196    21.041   147.640     0.000
   300.625   302.193    19.260   150.443     0.000
   300.750   302.193    17.558   135.457     0.000
   300.875   302.187    17.544   131.375     0.000
   301.000   302.180    17.456   130.275     0.000
   301.125   302.206    17.342   139.080     0.000
   301.250   302.419    15.002   131.800     0.000
   301.375   302.373    15.050   131.401     0.000
   301.500   302.206    14.795   116.687     0.000
   301.625   302.174    13.361   102.014     0.000
   301.750   302.178    13.062   100.777     0.000
   301.875   302.175    14.530   101.805     0.000
   302.000   302.170    14.072    97.988     0.000
   302.125   302.211    18.618   119.258     0.000
   302.250   302.421    17.571   117.803     0.000
   302.375   302.448    18.714   127.729     0.000
   302.500   302.228    18.207   128.799     0.000
   302.625   302.101    16.790   124.457     0.000
   302.750   302.092    17.073   117.560     0.000
   302.875   302.091    20.072   120.210     0.000
   303.000   302.088    24.016   131.980     0.000
   303.125   302.103    23.825   139.806     0.000
   303.250   302.151    25.864   151.298     0.000
   303.375   302.162    29.769   171.041     0.000
   303.500   302.103    32.108   189.717     0.000
   303.625   302.056    27.387   203.273     0.000
   303.750   302.052    22.343   192.145     0.000
   303.875   302.043    19.547   177.854     0.000
   304.000   302.039    17.879   164.921     0.000
   304.125   302.056    18.895   160.576     0.000
   304.250   302.160    20.227   157.013     0.000
   304.375   302.122    24.217   159.539     0.000
   304.500   302.042    24.372   148.860     0.000
   304.625   302.035    16.959   124.149     0.000
   304.750   302.039    17.183   119.694     0.000
   304.875   302.042    19.872   129.756     0.000
   305.000   302.042    20.071   134.944     0.000
   305.125   302.057    16.441   130.617     0.000
   305.250   302.234    14.759   126.547     0.000
   305.375   302.240    14.958   130.815     0.000
   305.500   302.058    14.812   129.839     0.000
   305.625   302.000    13.760   128.031     0.000
   305.750   301.997    13.026   120.549     0.000
   305.875   301.994    13.744   120.726     0.000
   306.000   301.987    13.556   116.974     0.000
   306.125   302.015    12.125   109.967     0.000
   306.250   302.242    12.182   115.560     0.000
   306.375   302.223    13.924   121.794     0.000
   306.500   302.006    15.763   121.090     0.000
   306.625   301.589    10.524    95.751     0.000
   306.750   301.579    12.622    94.141     0.000
   306.875   301.573    15.077    96.026     0.000
   307.000   301.572    15.953    98.949     0.000
   307.125   301.622    12.800   101.018     0.000
   307.250   301.947    12.278   100.962     0.000
   307.375   302.059    13.547   105.769     0.000
   307.500   301.722    12.351   101.914     0.000
   307.625   301.782    10.272    95.185     0.000
   307.750   301.784    11.061    94.888     0.000
   307.875   301.784    13.304    98.631     0.000
   308.000   301.779    14.868   101.969     0.000
   308.125   301.853    10.125    86.543     0.000
   308.250   302.413     8.312    86.440     0.000
   308.375   302.665     9.332    94.215     0.000
   308.500   302.064     8.189    89.428     0.000
   308.625   301.855     5.217    81.105     0.000
   308.750   301.856     7.163    81.329     0.000
   308.875   301.857    12.362    93.047     0.000
   309.000   301.849    14.954   100.590     0.000
   309.125   301.915    11.538   102.518     0.000
   309.250   302.295    10.237   101.547     0.000
   309.375   302.400    10.375   102.493     0.000
   309.500   301.926     8.096    97.191     0.000
   309.625   302.060     5.948    86.961     0.000
   309.750   302.055     6.208    81.049     0.000
   309.875   302.045     8.582    78.561     0.000
   310.000   302.039    10.029    77.928     0.000
   310.125   302.136     9.153    77.929     0.000
   310.250   302.793     9.455    81.339     0.000
   310.375   303.111    11.060    91.353     0.000
   310.500   302.413     9.425    88.036     0.000
   310.625   302.070     4.459    76.406     0.000
   310.750   302.054     5.355    73.659     0.000
   310.875   302.049     8.623    79.584     0.000
   311.000   302.043    12.330    85.572     0.000
   311.125   302.131     8.889    78.202     0.000
   311.250   302.676    10.530    87.005     0.000
   311.375   302.786    13.500   104.069     0.000
   311.500   302.233    11.893   100.862     0.000
   311.625   302.102     8.495    93.596     0.000
   311.750   302.098     9.648    90.600     0.000
   311.875   302.090    12.784    94.731     0.000
   312.000   302.104    15.183   105.130     0.000
   312.125   302.153    12.583   102.192     0.000
   312.250   302.519    12.142   106.745     0.000
   312.375   302.534    14.032   121.337     0.000
   312.500   302.163    14.161   122.821     0.000
   312.625   302.090    11.381   117.872     0.000
   312.750   302.076     9.636   104.862     0.000
   312.875   302.066    10.162    93.018     0.000
   313.000   302.056    12.579    95.881     0.000
   313.125   302.127    11.208   107.082     0.000
   313.250   302.534    12.896   114.196     0.000
   313.375   302.638    15.308   122.406     0.000
   313.500   302.177    14.224   115.451     0.000
   313.625   302.120    12.322   110.372     0.000
   313.750   302.120    13.307   110.333     0.000
   313.875   302.115    14.826   115.863     0.000
   314.000   302.113    14.970   118.911     0.000
   314.125   302.152    14.741   133.491     0.000
   314.250   302.466    12.765   131.026     0.000
   314.375   302.639    12.173   125.581     0.000
   314.500   302.248    10.923   111.790     0.000
   314.625   302.029    10.149   110.623     0.000
   314.750   302.014     9.720   105.734     0.000
   314.875   302.005    10.932   101.589     0.000
   315.000   302.004    11.895   100.219     0.000
   315.125   302.066     9.638   103.883     0.000
   315.250   302.498    10.671   106.630     0.000
   315.375   302.755    12.264   109.001     0.000
   315.500   302.248    10.798   102.960     0.000
   315.625   302.014     8.032    93.668     0.000
   315.750   301.983     8.130    89.533     0.000
   315.875   301.978    10.289    89.352     0.000
   316.000   301.974    12.539    92.127     0.000
   316.125   302.066    13.020    97.370     0.000
   316.250   302.491    13.620   108.747     0.000
   316.375   302.568    15.395   121.197     0.000
   316.500   302.140    14.153   112.372     0.000
   316.625   302.053     8.910    88.352     0.000
   316.750   302.034     8.771    84.949     0.000
   316.875   302.025    10.291    84.507     0.000
   317.000   302.028    10.819    82.219     0.000
   317.125   302.132     9.437    84.614     0.000
   317.250   302.805     9.449    85.591     0.000
   317.375   303.211    11.599    95.296     0.000
   317.500   302.486    11.160    92.189     0.000
   317.625   302.200     4.517    74.953     0.000
   317.750   302.161     4.759    71.489     0.000
   317.875   302.157     6.811    75.228     0.000
   318.000   302.147     8.830    82.084     0.000
   318.125   302.241     8.508    92.520     0.000
   318.250   302.743     9.616   104.808     0.000
   318.375   302.954    10.703   113.129     0.000
   318.500   302.464     9.101   106.934     0.000
   318.625   302.308     9.367   114.142     0.000
   318.750   302.308     9.720   115.158     0.000
   318.875   302.303    12.317   114.724     0.000
   319.000   302.298    14.762   113.919     0.000
   319.125   302.368    10.115   127.173     0.000
   319.250   302.687    10.132   131.340     0.000
   319.375   302.758    10.248   131.238     0.000
   319.500   302.373     8.902   119.121     0.000
   319.625   302.300     9.128   120.582     0.000
   319.750   302.300    10.437   117.556     0.000
   319.875   302.290    12.789   113.327     0.000
   320.000   302.287    14.617   108.989     0.000
   320.125   302.342    12.213   118.177     0.000
   320.250   302.695    11.346   118.274     0.000
   320.375   302.865    11.674   119.295     0.000
   320.500   302.445    10.411   108.353     0.000
   320.625   302.286     8.388   105.321     0.000
   320.750   302.266    10.014   101.164     0.000
   320.875   302.257    10.966    91.481     0.000
   321.000   302.249    11.427    87.456     0.000
   321.125   302.318    11.620   101.094     0.000
   321.250   302.671    13.033   110.739     0.000
   321.375   302.702    15.139   115.316     0.000
   321.500   302.323    13.965   102.404     0.000
   321.625   302.238     9.494    88.201     0.000
   321.750   302.226    11.328    86.524     0.000
   321.875   302.221    14.262    90.935     0.000
   322.000   302.227    17.507   100.453     0.000
   322.125   302.269    20.242   125.023     0.000
   322.250   302.500    20.046   129.507     0.000
   322.375   302.583    17.722   117.902     0.000
   322.500   302.263    14.163   107.486     0.000
   322.625   302.197     9.164    94.037     0.000
   322.750   302.200    11.712    97.162     0.000
