  day sst(K) H(W/m2) LE(W/m2) TAU(m2/s2)
   306.25000   302.12006     8.29776   139.56203     0.00000
   306.50000   301.88312     9.66862   143.77481     0.00000
   306.75000   301.91412     5.18258   145.71454     0.00000
   307.00000   302.39594     2.61285   167.20114     0.00000
   307.25000   302.22052     5.14927   155.43427     0.00000
   307.50000   301.85156     4.79612   117.11660     0.00000
   307.75000   301.90021     2.36137    81.04118     0.00000
   308.00000   303.07822     1.34494    73.21550     0.00000
   308.25000   302.85037     2.17992    70.16584     0.00000
   308.50000   302.16092     2.95165    91.03469     0.00000
   308.75000   302.25177     2.60533   100.84177     0.00000
   309.00000   302.72849     2.71812   111.19801     0.00000
   309.25000   302.39600     8.14075   107.96715     0.00000
   309.50000   301.91281     9.05880    90.84132     0.00000
   309.75000   301.97641     7.35891   116.55536     0.00000
   310.00000   302.40244     7.04452   151.05281     0.00000
   310.25000   302.19815     4.48690   112.09058     0.00000
   310.50000   301.85504     3.70794    77.19676     0.00000
   310.75000   301.90002     4.24865    93.52832     0.00000
   311.00000   302.13101     7.22110   112.31748     0.00000
   311.25000   301.99036     9.99734   145.58904     0.00000
   311.50000   301.78088    10.46309   123.91569     0.00000
   311.75000   301.80823     5.27765   100.46526     0.00000
   312.00000   302.20618     9.14333   121.08340     0.00000
   312.25000   302.05997     3.79282   121.41673     0.00000
   312.50000   301.75531     3.71831    89.25882     0.00000
   312.75000   301.79532     4.05404    99.87601     0.00000
   313.00000   302.35202     4.40190   100.02170     0.00000
   313.25000   302.17688     5.85846    97.61600     0.00000
   313.50000   301.78897     3.98353    80.28335     0.00000
   313.75000   301.84009     2.08220    68.07592     0.00000
   314.00000   302.62692     2.26070    69.87900     0.00000
   314.25000   302.39029     2.83146    88.29115     0.00000
   314.50000   301.84961     2.67863    88.07500     0.00000
   314.75000   301.92068     2.03061    78.34744     0.00000
   315.00000   302.12476     3.39237    88.60230     0.00000
   315.25000   301.89655     4.43216   117.52222     0.00000
   315.50000   301.62311     5.64987   120.79526     0.00000
   315.75000   301.65900    12.08886   152.72847     0.00000
   316.00000   301.78223    17.50615   155.81778     0.00000
   316.25000   301.70929    15.06482   149.27371     0.00000
   316.50000   301.61429     5.15569   115.38872     0.00000
   316.75000   301.62683     9.55850   145.33603     0.00000
   317.00000   301.78699    17.39310   163.43816     0.00000
   317.25000   301.72812    10.01394   160.24442     0.00000
   317.50000   301.60641     4.95294   141.05998     0.00000
   317.75000   301.62241     3.45214   149.91628     0.00000
   318.00000   302.16757     7.70804   193.66357     0.00000
   318.25000   302.00388     3.58012   161.15405     0.00000
   318.50000   301.60568     2.84476    73.51278     0.00000
   318.75000   301.65811     1.88673    73.22684     0.00000
   319.00000   302.91437     0.94623    88.43131     0.00000
   319.25000   302.68997     1.38063    89.02920     0.00000
   319.50000   301.97864     1.91524    61.80714     0.00000
   319.75000   302.07230     1.81608    74.42953     0.00000
   320.00000   302.72842     1.27098   105.08366     0.00000
   320.25000   302.38876     1.20231    92.55987     0.00000
   320.50000   301.82889     2.83864    87.15082     0.00000
   320.75000   301.90271     2.26918    84.85215     0.00000
   321.00000   302.52707     1.24570   108.45810     0.00000
   321.25000   302.24329     2.54638   107.44205     0.00000
   321.50000   301.73892     3.87672    96.45338     0.00000
   321.75000   301.80521     1.70869    82.09457     0.00000
   322.00000   302.73883     1.57626    97.65517     0.00000
   322.25000   302.48492     1.92756   104.22021     0.00000
   322.50000   301.88321     3.04417    72.69492     0.00000
   322.75000   301.96243     1.93884    63.59677     0.00000
   323.00000   302.89133     0.39515    91.52615     0.00000
   323.25000   302.58154     4.42577    93.39408     0.00000
   323.50000   301.93018     6.02808    97.21059     0.00000
   323.75000   302.01578     2.29914    74.22441     0.00000
   324.00000   303.00021     2.01468    73.68517     0.00000
   324.25000   302.67551     1.51954    75.31958     0.00000
   324.50000   301.99185     1.96347    63.73452     0.00000
   324.75000   302.08185     2.30661    75.31717     0.00000
   325.00000   302.68124     2.13857   100.54759     0.00000
   325.25000   302.35410     6.25256    99.31739     0.00000
   325.50000   301.82642     5.23250    88.16686     0.00000
   325.75000   301.89590     2.58513   106.84969     0.00000
   326.00000   302.72205     2.57348   118.41376     0.00000
   326.25000   302.50461     2.05451    90.39012     0.00000
   326.50000   301.99283     3.61452    84.58910     0.00000
   326.75000   302.06009     2.31909    86.83505     0.00000
   327.00000   302.70743     1.07998   116.02425     0.00000
   327.25000   302.50763     1.70140   113.25320     0.00000
   327.50000   302.08643     4.98896   108.97516     0.00000
   327.75000   302.14185     5.70809    95.13964     0.00000
   328.00000   302.50485     3.39307   129.55917     0.00000
   328.25000   302.36584     2.79410   139.20059     0.00000
   328.50000   302.11716     3.25616   107.74426     0.00000
   328.75000   302.14978     5.95120   144.53183     0.00000
   329.00000   302.34601     7.93266   170.08261     0.00000
   329.25000   302.27811     7.81001   147.98859     0.00000
   329.50000   302.15497     6.34710   132.36334     0.00000
   329.75000   302.17105    14.70569   181.19489     0.00000
   330.00000   302.39056    11.35665   196.88339     0.00000
   330.25000   302.32367     8.89642   152.86002     0.00000
   330.50000   302.17310     7.71150   139.01987     0.00000
   330.75000   302.19284     4.41461   132.89647     0.00000
   331.00000   303.10083     2.05799   121.36653     0.00000
   331.25000   302.92407     1.17058    76.33662     0.00000
   331.50000   302.36990     2.71399    73.32925     0.00000
   331.75000   302.44287     6.33949   121.52918     0.00000
   332.00000   302.96246     6.68589   133.03502     0.00000
   332.25000   302.74792     5.64850   116.54834     0.00000
   332.50000   302.36816     3.41870    91.31541     0.00000
   332.75000   302.41815     2.13586    79.90796     0.00000
   333.00000   303.66470     0.15055    81.49970     0.00000
   333.25000   303.37881     0.50688    67.89389     0.00000
   333.50000   302.59433     2.25544    71.49263     0.00000
   333.75000   302.69766     1.70154    66.03860     0.00000
   334.00000   303.77908     0.87324    78.56641     0.00000
   334.25000   303.37863     0.89115    76.01817     0.00000
   334.50000   302.58670     2.48140    67.10053     0.00000
   334.75000   302.69104     1.96401    72.68187     0.00000
   335.00000   303.69119     0.65808    92.68587     0.00000
   335.25000   303.31177     1.18445    81.32611     0.00000
   335.50000   302.57892     2.09256    51.39857     0.00000
   335.75000   302.67548     1.67311    73.08427     0.00000
   336.00000   303.51083    -0.04802   117.07845     0.00000
   336.25000   303.15527     0.63911    99.58064     0.00000
   336.50000   302.50735     3.50561    91.43970     0.00000
   336.75000   302.59265     1.90900    66.42735     0.00000
   337.00000   303.78027     0.00833    75.20974     0.00000
   337.25000   303.40570     0.54845    69.75852     0.00000
   337.50000   302.57993     2.08422    62.11949     0.00000
   337.75000   302.68863     1.59782    64.00379     0.00000
   338.00000   303.82083     0.06910    85.46420     0.00000
   338.25000   303.40079     0.35766    80.41286     0.00000
   338.50000   302.57184     1.82669    53.97102     0.00000
   338.75000   302.68103     1.86350    72.75777     0.00000
   339.00000   303.56104     0.32820    87.41969     0.00000
   339.25000   303.19724     0.58109    69.21455     0.00000
   339.50000   302.53717     2.62144    79.62653     0.00000
   339.75000   302.62393     2.35300    79.61720     0.00000
   340.00000   303.28946     0.48898   101.98231     0.00000
   340.25000   303.00342     0.98119   104.19512     0.00000
   340.50000   302.49506     3.10397    91.46631     0.00000
   340.75000   302.56201     4.48587   115.08551     0.00000
   341.00000   303.58582     2.61059   135.61028     0.00000
   341.25000   303.38403     1.42879   104.24030     0.00000
   341.50000   302.81073     2.42545    65.03732     0.00000
   341.75000   302.88617     3.02357    74.04701     0.00000
   342.00000   303.68060     0.95617    73.14462     0.00000
   342.25000   303.37137     1.16802    90.24625     0.00000
   342.50000   302.77136     3.21504   114.11866     0.00000
   342.75000   302.85040     1.82424    85.99842     0.00000
   343.00000   303.66180     1.34452   102.62386     0.00000
   343.25000   303.35837     2.03560    95.37639     0.00000
   343.50000   302.76126     2.48206   101.04356     0.00000
   343.75000   302.83987     2.60409    77.63460     0.00000
   344.00000   303.80527     3.52783   100.88795     0.00000
   344.25000   303.53854     5.62785   102.37587     0.00000
   344.50000   302.92456     5.51979    86.58858     0.00000
   344.75000   303.00546     5.61909    89.51424     0.00000
   345.00000   303.46530     7.50718   118.87762     0.00000
   345.25000   303.20981     6.24255   110.94099     0.00000
   345.50000   302.81531     3.51091    95.86684     0.00000
   345.75000   302.86725     2.70694    78.26049     0.00000
   346.00000   303.32126     2.37547   118.16879     0.00000
   346.25000   303.06860     2.16352   124.87652     0.00000
   346.50000   302.64218     5.45447   108.97014     0.00000
   346.75000   302.69815    12.80411   140.68048     0.00000
   347.00000   303.09198    10.82854   117.66780     0.00000
   347.25000   302.98331     9.24842   105.46518     0.00000
   347.50000   302.76184     4.22975    85.65787     0.00000
   347.75000   302.79108     3.22295   149.00262     0.00000
   348.00000   302.91959     4.95828   158.66313     0.00000
   348.25000   302.79559     5.80573   132.38342     0.00000
   348.50000   302.62833     9.03180   153.99553     0.00000
   348.75000   302.65033    14.02287   160.69121     0.00000
   349.00000   302.73883    17.62040   183.69385     0.00000
   349.25000   302.70001    10.69009   188.77309     0.00000
   349.50000   302.64346     7.15923   146.71352     0.00000
   349.75000   302.65091     4.22359   100.44618     0.00000
   350.00000   303.13828     3.75698   137.68053     0.00000
   350.25000   303.04260     3.64141   141.90736     0.00000
   350.50000   302.73917     7.05149   111.50726     0.00000
   350.75000   302.77899    12.35532   121.22397     0.00000
   351.00000   303.02530    12.63424   181.67680     0.00000
   351.25000   302.88989     6.65701   159.20126     0.00000
   351.50000   302.67374     2.79962    96.89915     0.00000
   351.75000   302.70212     4.66337   105.98123     0.00000
   352.00000   302.98318     3.90493   124.96487     0.00000
   352.25000   302.88297     5.18902   127.56120     0.00000
   352.50000   302.68164     4.61649   143.33406     0.00000
   352.75000   302.70801     2.70551   122.07536     0.00000
   353.00000   303.21936     1.89658   137.72772     0.00000
   353.25000   303.04977     2.32401   123.73597     0.00000
   353.50000   302.67007     3.48755   115.37265     0.00000
   353.75000   302.72003     2.81890   110.04141     0.00000
   354.00000   303.18155     2.72957   125.59940     0.00000
   354.25000   302.91870     3.94648    84.93820     0.00000
   354.50000   302.47568     2.92905    97.63980     0.00000
   354.75000   302.53391     5.84647   139.55600     0.00000
   355.00000   302.55576     3.67607   163.48434     0.00000
   355.25000   302.36826     6.04143   137.80101     0.00000
   355.50000   302.20294    13.10973   149.41327     0.00000
   355.75000   302.22461    14.35750   150.73856     0.00000
   356.00000   302.22964    14.55318   143.50876     0.00000
   356.25000   302.17026    19.37238   193.12241     0.00000
   356.50000   302.12219    16.63538   184.14163     0.00000
   356.75000   302.12848    14.22377   206.56396     0.00000
   357.00000   302.18625    17.29019   234.41592     0.00000
   357.25000   302.14828    22.47193   213.05180     0.00000
   357.50000   302.08441    20.75890   196.14948     0.00000
   357.75000   302.09271    22.01953   207.23363     0.00000
   358.00000   302.32489     9.33541   157.15813     0.00000
   358.25000   302.25626     3.68231   123.13960     0.00000
   358.50000   302.08853     4.67176   135.28198     0.00000
   358.75000   302.11047     4.44436   122.53921     0.00000
   359.00000   302.37592     2.90810   105.64590     0.00000
   359.25000   302.26764     8.17813   147.51572     0.00000
   359.50000   302.05606    14.27377   157.65813     0.00000
   359.75000   302.08377    16.60747   146.93239     0.00000
   360.00000   302.12589    14.33381   153.63609     0.00000
   360.25000   302.08264    11.10765   204.32404     0.00000
   360.50000   302.04605     6.85272   224.58174     0.00000
   360.75000   302.05084     5.91349   156.38002     0.00000
   361.00000   302.12827     4.44915   146.95247     0.00000
   361.25000   302.04858     7.87507   150.61807     0.00000
   361.50000   301.92493    10.02656   175.32149     0.00000
   361.75000   301.94104    10.73979   184.66371     0.00000
   362.00000   302.03796     9.97137   155.86800     0.00000
   362.25000   301.96899     5.45809   150.85201     0.00000
   362.50000   301.86456     6.64845   164.88492     0.00000
   362.75000   301.87817    10.32052   184.85146     0.00000
   363.00000   302.01007     6.92970   169.80150     0.00000
   363.25000   301.94769     3.27256   164.04959     0.00000
   363.50000   301.83450     7.01801   168.06659     0.00000
   363.75000   301.84930     8.80682   180.02623     0.00000
   364.00000   301.98566     7.32283   159.06773     0.00000
   364.25000   301.92776    11.37763   177.77325     0.00000
   364.50000   301.81982    12.52641   195.77397     0.00000
   364.75000   301.83395     5.77791   190.80017     0.00000
   365.00000   301.94287     4.52923   198.53999     0.00000
   365.25000   301.89624     3.31013   179.91782     0.00000
   365.50000   301.81146     4.22056   165.23833     0.00000
   365.75000   301.82242     4.84692   217.26158     0.00000
   366.00000   301.91458     4.37375   181.13766     0.00000
   366.25000   301.87662     5.16021   179.36359     0.00000
   366.50000   301.80588     7.19331   181.46999     0.00000
   366.75000   301.81516     9.94876   205.12122     0.00000
   367.00000   301.89529    11.49249   175.78836     0.00000
   367.25000   301.86459    11.15173   168.66699     0.00000
   367.50000   301.80423    13.80841   194.99989     0.00000
   367.75000   301.81189     6.94805   206.64127     0.00000
   368.00000   301.90991     7.31377   190.03209     0.00000
   368.25000   301.85303    11.42140   153.45137     0.00000
   368.50000   301.75287     9.37944   189.27307     0.00000
   368.75000   301.76596     6.02670   175.40582     0.00000
   369.00000   302.09735     5.25185   151.71745     0.00000
   369.25000   301.98273     4.66141   116.41179     0.00000
   369.50000   301.72458     7.45222   118.25414     0.00000
   369.75000   301.75845     8.06685   122.72896     0.00000
   370.00000   302.15726     5.88649   128.69675     0.00000
   370.25000   302.01376     5.68635   108.69505     0.00000
   370.50000   301.71936     7.70720    92.52542     0.00000
   370.75000   301.75800     8.70011   129.71379     0.00000
   371.00000   302.49115     4.06963   118.13264     0.00000
   371.25000   302.36844     4.64149   100.05122     0.00000
   371.50000   301.97253     2.39635    66.13478     0.00000
   371.75000   302.02463     2.20344    92.50675     0.00000
   372.00000   302.77371     4.21060    91.09684     0.00000
   372.25000   302.54230     2.74940    82.20581     0.00000
   372.50000   302.02612     2.73765    68.15875     0.00000
   372.75000   302.09415     2.15918    69.37630     0.00000
   373.00000   303.09521     0.71375   115.22707     0.00000
   373.25000   302.79333     0.96131    86.32543     0.00000
   373.50000   302.11172     1.71918    39.82547     0.00000
   373.75000   302.20154     1.34430    59.91731     0.00000
   374.00000   303.19727     0.37379    92.40495     0.00000
   374.25000   302.84006     0.69943    61.42161     0.00000
   374.50000   302.11935     2.06448    41.19301     0.00000
   374.75000   302.21426     1.53277    51.90469     0.00000
   375.00000   302.96768     0.26813    70.83582     0.00000
   375.25000   302.59122     0.91562    59.72254     0.00000
   375.50000   301.94891     3.15203    75.62550     0.00000
   375.75000   302.03336     2.44383    92.95233     0.00000
   376.00000   302.88696     0.26110    91.97363     0.00000
   376.25000   302.55170     0.80099    61.83997     0.00000
   376.50000   301.90744     3.04231    61.82652     0.00000
   376.75000   301.99240     2.69282    79.38317     0.00000
   377.00000   302.71762     1.09054    97.56250     0.00000
   377.25000   302.38910     1.72251    65.58861     0.00000
   377.50000   301.80423     3.58349    72.48047     0.00000
   377.75000   301.88116     2.45152    83.76522     0.00000
   378.00000   302.62463     0.15929    93.97611     0.00000
   378.25000   302.33945     1.02479    87.73404     0.00000
   378.50000   301.79010     3.17519    83.00048     0.00000
   378.75000   301.86237     2.53586    80.60493     0.00000
   379.00000   303.13483    -0.06390    94.50732     0.00000
   379.25000   302.79880     0.49321    64.46091     0.00000
   379.50000   301.97028     2.07913    47.35195     0.00000
   379.75000   302.07935     1.70971    61.51739     0.00000
   380.00000   302.96851    -0.02891    80.59038     0.00000
   380.25000   302.57980     1.44500    69.35812     0.00000
   380.50000   301.88605     3.55719    71.13531     0.00000
   380.75000   301.97733     4.56151    90.68329     0.00000
   381.00000   302.25882     2.61241    97.06923     0.00000
   381.25000   301.93771     2.02752    91.52785     0.00000
   381.50000   301.54568     3.67104    86.99258     0.00000
   381.75000   301.59714     4.69620   118.95191     0.00000
   382.00000   302.31900     7.62600   139.73471     0.00000
   382.25000   302.22083    10.96860   126.78612     0.00000
   382.50000   301.87311     5.46487   105.35675     0.00000
   382.75000   301.91882     4.74245   100.55361     0.00000
   383.00000   302.54803     5.95058   124.41367     0.00000
   383.25000   302.39709     5.86282   113.80541     0.00000
   383.50000   302.01587     4.79512    89.45068     0.00000
   383.75000   302.06604     7.57051   117.25716     0.00000
   384.00000   302.54709     7.29625   107.96615     0.00000
   384.25000   302.44067     4.77891   112.19198     0.00000
   384.50000   302.17807     4.28318   125.58032     0.00000
   384.75000   302.21255     7.95917   124.42973     0.00000
   385.00000   302.34253    15.76149   135.08920     0.00000
   385.25000   302.25592    14.25278   160.12294     0.00000
   385.50000   302.13962    14.49917   127.92867     0.00000
   385.75000   302.15500    16.47423   114.27126     0.00000
   386.00000   302.32199    11.11789   146.35107     0.00000
   386.25000   302.26767     6.57543   118.15373     0.00000
   386.50000   302.15210     5.07014   118.45995     0.00000
   386.75000   302.16711     3.26559   135.85927     0.00000
   387.00000   302.54895     4.81537   128.73891     0.00000
   387.25000   302.43512     4.79157   125.15864     0.00000
   387.50000   302.16064     5.85820   128.18770     0.00000
   387.75000   302.19669     3.65861   143.70050     0.00000
