 z[m] p[mb] tp[K] q[g/kg] u[m/s] v[m/s]
 243.,  19,  1012.  day,levels,pres0
   181.594   991.250   297.300    16.909     2.179     3.096
   593.683   945.500   298.587    15.229     2.232     2.166
  1079.167   893.790   300.676    13.217     1.460     0.885
  1649.556   836.060   303.634    11.247     0.466     0.319
  2313.877   772.820   307.075     9.575    -0.935     0.604
  3075.972   705.220   310.380     7.792    -1.214     1.669
  3932.822   635.050   313.884     5.947    -1.595     2.305
  4877.740   564.480   319.024     4.696    -2.557     1.605
  5899.537   495.730   324.662     3.144    -2.408     1.208
  6980.710   430.710   329.821     1.870    -1.879     1.100
  8101.404   370.780   334.148     1.155    -1.224     0.642
  9242.177   316.720   337.510     0.575    -0.736     0.168
 10385.816   268.820   340.219     0.225    -1.997    -0.227
 11518.124   226.980   341.941     0.086    -4.635    -1.408
 12629.559   190.820   343.658     0.033    -8.858    -2.684
 13716.346   159.870   347.545     0.013   -13.057    -1.526
 14783.751   133.550   355.377     0.006   -13.377     0.388
 15842.498   111.290   369.166     0.005   -11.806     0.482
 16907.232    92.560   390.753     0.006   -11.790     0.399
 243.125,  19,  1012.  day,levels,pres0
   181.576   991.250   297.270    16.912     2.028     2.781
   593.642   945.500   298.601    15.133     2.017     2.032
  1079.196   893.790   300.794    13.063     1.466     0.966
  1649.695   836.060   303.692    11.068     0.649     0.748
  2313.924   772.820   306.970     9.536    -0.688     0.885
  3075.791   705.220   310.287     7.901    -1.048     1.877
  3932.543   635.050   313.870     6.033    -1.317     2.597
  4877.437   564.480   318.991     4.770    -2.185     1.737
  5899.161   495.730   324.620     3.217    -2.155     1.416
  6980.262   430.710   329.794     1.924    -1.704     1.119
  8100.944   370.780   334.152     1.189    -0.627     0.719
  9241.759   316.720   337.522     0.587    -0.046     0.062
 10385.361   268.820   340.181     0.226    -1.267    -0.325
 11517.523   226.980   341.891     0.085    -4.185    -1.266
 12628.868   190.820   343.653     0.033    -8.902    -2.475
 13715.909   159.870   347.716     0.013   -13.359    -1.488
 14784.162   133.550   355.770     0.007   -13.457     0.245
 15843.742   111.290   369.337     0.005   -11.812     0.256
 16908.814    92.560   390.819     0.006   -11.888     0.371
 243.25,  19,  1012.  day,levels,pres0
   181.569   991.250   297.281    16.782     1.752     2.497
   593.655   945.500   298.681    14.916     1.683     1.934
  1079.353   893.790   300.973    12.832     1.509     1.173
  1650.057   836.060   303.817    10.828     1.051     1.495
  2314.363   772.820   306.984     9.407    -0.029     1.560
  3076.250   705.220   310.322     7.865    -0.622     2.463
  3933.172   635.050   313.968     6.028    -1.247     3.313
  4878.211   564.480   318.976     4.840    -1.797     1.870
  5899.987   495.730   324.630     3.339    -1.929     1.231
  6981.253   430.710   329.849     1.982    -1.947     0.669
  8102.061   370.780   334.158     1.189    -0.494     0.350
  9242.980   316.720   337.579     0.584     0.620    -0.389
 10386.726   268.820   340.208     0.224    -0.278    -0.637
 11518.980   226.980   341.920     0.085    -3.836    -1.512
 12630.688   190.820   343.853     0.032    -9.532    -2.225
 13718.828   159.870   348.224     0.013   -14.157    -1.244
 14789.109   133.550   356.606     0.007   -13.385     0.039
 15850.326   111.290   369.605     0.005   -11.684     0.095
 16916.123    92.560   391.067     0.006   -11.840     0.631
 243.375,  19,  1012.  day,levels,pres0
   181.663   991.250   297.464    16.623     1.742     2.671
   593.941   945.500   298.848    14.669     1.633     2.051
  1079.785   893.790   301.070    12.612     1.569     1.297
  1650.539   836.060   303.853    10.599     1.491     1.982
  2314.881   772.820   307.044     9.297     0.621     2.171
  3077.047   705.220   310.531     7.751    -0.198     2.943
  3934.544   635.050   314.217     5.939    -1.322     3.766
  4880.060   564.480   319.057     4.858    -1.667     2.130
  5902.162   495.730   324.736     3.421    -2.197     1.104
  6984.043   430.710   330.093     2.026    -2.695     0.697
  8105.763   370.780   334.447     1.184    -1.073     0.307
  9247.715   316.720   337.902     0.569     0.633    -0.718
 10392.543   268.820   340.530     0.221    -0.140    -1.039
 11525.964   226.980   342.302     0.084    -4.671    -2.102
 12639.451   190.820   344.577     0.032   -11.301    -2.535
 13730.373   159.870   349.276     0.013   -15.400    -1.118
 14803.936   133.550   357.715     0.007   -13.173    -0.021
 15867.126   111.290   369.823     0.005   -11.117     0.539
 16933.701    92.560   391.408     0.006   -11.309     1.379
 243.5,  19,  1012.  day,levels,pres0
   181.794   991.250   297.683    16.597     2.132     2.431
   594.316   945.500   299.001    14.599     2.125     1.880
  1080.322   893.790   301.146    12.520     2.020     1.190
  1651.073   836.060   303.788    10.608     2.121     1.862
  2315.349   772.820   307.047     9.303     1.302     2.102
  3077.772   705.220   310.772     7.571     0.031     3.086
  3935.883   635.050   314.497     5.731    -1.568     4.014
  4881.907   564.480   319.164     4.811    -1.571     2.325
  5904.336   495.730   324.843     3.423    -2.163     1.326
  6986.660   430.710   330.252     2.036    -2.976     1.630
  8109.025   370.780   334.667     1.193    -1.697     0.809
  9251.867   316.720   338.212     0.542     0.041    -1.072
 10397.632   268.820   340.783     0.206    -0.732    -1.806
 11532.010   226.980   342.631     0.081    -6.078    -3.145
 12646.926   190.820   345.135     0.032   -13.136    -3.397
 13739.841   159.870   349.989     0.013   -16.414    -1.442
 14815.453   133.550   358.350     0.007   -13.105     0.387
 15879.630   111.290   369.847     0.005   -10.168     1.651
 16946.271    92.560   391.431     0.006   -10.390     2.242
 243.625,  19,  1012.  day,levels,pres0
   181.859   991.250   297.775    16.677     2.360     2.198
   594.473   945.500   298.987    14.810     2.638     1.713
  1080.435   893.790   301.022    12.770     2.603     1.007
  1651.034   836.060   303.634    10.995     2.788     1.460
  2315.246   772.820   307.044     9.454     2.039     1.724
  3077.885   705.220   310.946     7.451     0.449     3.174
  3936.426   635.050   314.693     5.556    -1.602     4.356
  4882.742   564.480   319.204     4.764    -1.368     2.444
  5905.144   495.730   324.799     3.394    -1.956     1.712
  6987.208   430.710   330.155     1.977    -2.920     2.842
  8109.153   370.780   334.524     1.211    -1.983     1.438
  9251.778   316.720   338.230     0.530    -0.700    -1.641
 10397.438   268.820   340.706     0.192    -1.464    -2.981
 11531.484   226.980   342.511     0.079    -7.272    -4.454
 12646.357   190.820   345.236     0.031   -14.169    -4.458
 13739.764   159.870   350.204     0.013   -17.109    -1.864
 14815.319   133.550   358.085     0.007   -13.111     0.976
 15878.608   111.290   369.503     0.005    -8.811     2.372
 16944.146    92.560   390.985     0.006    -9.162     2.671
 243.75,  19,  1012.  day,levels,pres0
   181.857   991.250   297.759    16.747     2.411     2.139
   594.378   945.500   298.826    14.971     3.014     1.710
  1080.088   893.790   300.796    13.028     2.998     0.835
  1650.436   836.060   303.472    11.416     3.142     0.999
  2314.602   772.820   307.038     9.718     2.396     1.482
  3077.392   705.220   311.017     7.497     0.602     3.684
  3936.132   635.050   314.775     5.469    -1.627     4.925
  4882.592   564.480   319.238     4.744    -1.096     2.814
  5904.869   495.730   324.698     3.347    -1.659     2.321
  6986.377   430.710   329.949     1.868    -2.918     3.892
  8107.243   370.780   334.105     1.226    -2.450     1.840
  9248.711   316.720   337.966     0.541    -1.527    -2.524
 10393.426   268.820   340.409     0.185    -2.151    -4.754
 11526.301   226.980   342.102     0.078    -8.157    -5.898
 12640.206   190.820   345.053     0.032   -14.990    -5.044
 13733.275   159.870   350.176     0.013   -17.985    -1.585
 14808.074   133.550   357.603     0.007   -13.178     1.472
 15869.717   111.290   368.854     0.004    -7.660     2.470
 16933.736    92.560   390.557     0.006    -7.872     2.529
 243.875,  19,  1012.  day,levels,pres0
   181.824   991.250   297.707    16.744     2.505     2.219
   594.280   945.500   298.796    14.908     3.281     1.758
  1079.884   893.790   300.683    13.156     3.344     0.929
  1650.132   836.060   303.410    11.670     3.366     0.843
  2314.348   772.820   307.049     9.996     2.651     1.427
  3077.314   705.220   311.095     7.510     0.775     3.963
  3936.275   635.050   314.879     5.347    -1.513     5.211
  4882.964   564.480   319.320     4.695    -1.127     3.453
  5905.172   495.730   324.595     3.262    -1.553     3.039
  6986.088   430.710   329.741     1.699    -2.999     4.512
  8105.919   370.780   333.744     1.162    -3.053     2.209
  9246.099   316.720   337.585     0.524    -2.523    -3.102
 10389.645   268.820   340.104     0.174    -3.498    -5.983
 11521.463   226.980   341.772     0.076    -8.766    -6.799
 12634.447   190.820   344.818     0.032   -15.405    -4.890
 13727.047   159.870   350.117     0.013   -18.372    -0.882
 14801.640   133.550   357.526     0.007   -12.990     1.797
 15862.829   111.290   368.616     0.004    -6.677     2.137
 16926.645    92.560   390.658     0.006    -6.950     2.130
 244.,  19,  1012.  day,levels,pres0
   181.821   991.250   297.685    16.835     2.900     2.045
   594.329   945.500   298.865    14.983     3.702     1.506
  1080.053   893.790   300.744    13.179     3.914     0.870
  1650.419   836.060   303.468    11.676     3.657     0.668
  2314.738   772.820   307.070    10.074     3.054     1.461
  3077.785   705.220   311.145     7.405     1.079     4.166
  3936.883   635.050   314.979     5.189    -1.450     5.507
  4883.734   564.480   319.379     4.592    -1.520     3.985
  5905.736   495.730   324.444     3.148    -1.674     3.477
  6985.912   430.710   329.507     1.491    -3.061     4.608
  8104.825   370.780   333.502     1.040    -3.482     2.058
  9243.989   316.720   337.265     0.462    -3.376    -3.431
 10386.581   268.820   339.879     0.152    -4.689    -6.262
 11517.774   226.980   341.628     0.073    -9.313    -6.898
 12630.338   190.820   344.703     0.032   -15.398    -3.873
 13722.819   159.870   350.160     0.014   -17.925     0.177
 14797.676   133.550   357.658     0.007   -12.333     2.004
 15859.639   111.290   369.021     0.004    -6.078     1.512
 16924.566    92.560   391.047     0.006    -6.473     1.679
 244.125,  19,  1012.  day,levels,pres0
   181.843   991.250   297.688    17.018     3.144     1.721
   594.389   945.500   298.842    15.209     3.928     0.974
  1080.164   893.790   300.778    13.242     4.173     0.337
  1650.656   836.060   303.583    11.527     3.842     0.222
  2315.090   772.820   307.112     9.937     3.373     1.425
  3078.108   705.220   311.133     7.248     1.379     4.301
  3937.176   635.050   315.020     5.084    -1.420     5.563
  4883.994   564.480   319.351     4.501    -1.984     4.155
  5905.564   495.730   324.247     2.981    -1.944     3.675
  6985.032   430.710   329.347     1.298    -2.984     4.416
  8103.240   370.780   333.303     0.931    -3.766     1.552
  9241.734   316.720   337.106     0.401    -4.195    -3.496
 10383.833   268.820   339.763     0.139    -5.412    -6.053
 11514.833   226.980   341.634     0.069    -9.950    -6.188
 12627.653   190.820   344.860     0.031   -15.256    -2.266
 13720.736   159.870   350.388     0.014   -16.537     1.269
 14796.138   133.550   357.786     0.007   -11.113     2.167
 15858.829   111.290   369.397     0.005    -6.095     0.930
 16924.418    92.560   391.134     0.006    -6.596     1.328
 244.25,  19,  1012.  day,levels,pres0
   181.823   991.250   297.645    17.078     2.704     1.258
   594.247   945.500   298.685    15.279     3.277     0.444
  1079.793   893.790   300.629    13.298     3.553    -0.388
  1650.106   836.060   303.559    11.384     3.492    -0.392
  2314.546   772.820   307.219     9.671     3.308     1.200
  3077.691   705.220   311.216     7.054     1.460     4.412
  3936.840   635.050   315.048     5.004    -1.437     5.494
  4883.527   564.480   319.273     4.382    -2.291     4.184
  5904.638   495.730   324.089     2.825    -2.176     3.667
  6983.656   430.710   329.275     1.257    -2.604     4.305
  8101.675   370.780   333.291     0.841    -4.018     1.181
  9240.279   316.720   337.213     0.356    -5.208    -3.425
 10382.578   268.820   339.782     0.137    -6.687    -5.726
 11513.790   226.980   341.746     0.067   -10.948    -4.779
 12627.474   190.820   345.290     0.030   -14.780    -0.690
 13722.123   159.870   350.958     0.014   -14.567     1.844
 14799.052   133.550   358.218     0.007    -9.407     2.142
 15862.574   111.290   369.526     0.005    -6.167     0.680
 16927.973    92.560   390.860     0.006    -6.861     1.525
 244.375,  19,  1012.  day,levels,pres0
   181.850   991.250   297.703    16.998     1.804     1.397
   594.245   945.500   298.615    15.183     2.256     0.635
  1079.684   893.790   300.605    13.184     2.595    -0.509
  1649.965   836.060   303.592    11.274     2.670    -0.687
  2314.487   772.820   307.308     9.535     2.601     0.744
  3077.692   705.220   311.215     6.973     0.982     4.197
  3936.729   635.050   314.996     4.935    -1.911     5.326
  4883.194   564.480   319.214     4.255    -2.644     4.067
  5904.118   495.730   324.081     2.690    -2.173     3.517
  6983.305   430.710   329.420     1.232    -2.000     4.024
  8102.052   370.780   333.600     0.769    -4.202     1.135
  9241.712   316.720   337.546     0.330    -6.125    -3.116
 10385.020   268.820   340.051     0.136    -8.290    -4.904
 11517.310   226.980   342.130     0.064   -11.849    -3.010
 12632.794   190.820   346.026     0.030   -13.930     0.640
 13729.971   159.870   351.834     0.013   -13.013     2.391
 14809.235   133.550   358.875     0.007    -8.046     2.391
 15873.789   111.290   369.558     0.005    -6.030     0.855
 16938.611    92.560   390.403     0.006    -6.775     2.020
 244.5,  19,  1012.  day,levels,pres0
   181.925   991.250   297.841    16.913     1.008     1.778
   594.428   945.500   298.663    15.103     1.416     0.980
  1079.978   893.790   300.737    13.034     1.743    -0.541
  1650.556   836.060   303.816    11.198     1.747    -0.830
  2315.472   772.820   307.457     9.548     1.338     0.380
  3078.792   705.220   311.130     7.100    -0.108     3.744
  3937.595   635.050   314.874     4.988    -2.441     4.985
  4883.830   564.480   319.182     4.205    -2.899     3.850
  5904.780   495.730   324.152     2.637    -1.936     3.239
  6984.422   430.710   329.645     1.197    -1.317     3.763
  8104.123   370.780   333.956     0.741    -4.134     1.302
  9244.907   316.720   337.857     0.332    -6.598    -2.672
 10389.133   268.820   340.281     0.138    -9.065    -3.478
 11522.426   226.980   342.508     0.063   -11.672    -0.991
 12639.507   190.820   346.639     0.029   -12.695     1.322
 13738.649   159.870   352.471     0.013   -11.833     2.958
 14819.365   133.550   359.186     0.007    -7.046     3.207
 15884.084   111.290   369.347     0.004    -5.636     1.073
 16948.771    92.560   390.526     0.006    -6.428     1.911
 244.625,  19,  1012.  day,levels,pres0
   182.028   991.250   298.016    16.878     0.416     2.246
   594.708   945.500   298.748    15.110     0.559     1.559
  1080.448   893.790   300.888    13.017     0.723    -0.286
  1651.425   836.060   304.090    11.211     0.743    -0.711
  2316.914   772.820   307.698     9.592     0.105     0.392
  3080.600   705.220   311.170     7.123    -1.471     3.375
  3939.547   635.050   314.928     5.025    -3.283     4.489
  4886.130   564.480   319.369     4.137    -3.554     3.256
  5907.711   495.730   324.402     2.514    -1.991     2.726
  6988.027   430.710   329.830     1.178    -0.939     3.394
  8108.069   370.780   333.967     0.771    -3.912     1.340
  9249.004   316.720   337.924     0.353    -6.611    -2.127
 10393.474   268.820   340.353     0.141    -8.929    -1.832
 11527.324   226.980   342.776     0.063   -10.900     0.508
 12645.237   190.820   346.884     0.029   -11.657     1.608
 13745.066   159.870   352.661     0.013   -10.820     3.259
 14825.675   133.550   358.913     0.007    -6.325     3.450
 15889.373   111.290   368.918     0.004    -5.611     0.673
 16954.457    92.560   391.269     0.006    -6.425     0.982
 244.75,  19,  1012.  day,levels,pres0
   182.089   991.250   298.108    16.921     0.366     2.804
   594.935   945.500   298.865    15.239     0.112     2.433
  1080.962   893.790   301.084    13.126    -0.078     0.504
  1652.420   836.060   304.381    11.232    -0.202    -0.321
  2318.512   772.820   307.990     9.417    -1.019     0.575
  3082.798   705.220   311.448     6.851    -2.686     2.968
  3942.309   635.050   315.127     4.950    -4.203     3.586
  4889.492   564.480   319.606     4.043    -4.391     2.119
  5911.891   495.730   324.738     2.318    -2.415     1.787
  6992.650   430.710   329.811     1.093    -1.338     2.646
  8112.045   370.780   333.612     0.779    -4.143     1.123
  9251.866   316.720   337.622     0.362    -6.894    -1.601
 10395.553   268.820   340.193     0.141    -8.688    -0.825
 11529.281   226.980   342.868     0.063   -10.428     0.892
 12647.168   190.820   346.770     0.028   -11.483     1.463
 13746.117   159.870   352.207     0.013   -10.075     3.260
 14824.694   133.550   358.018     0.006    -6.053     2.876
 15886.355   111.290   368.431     0.004    -6.315     0.142
 16951.418    92.560   391.768     0.006    -6.890     0.366
 244.875,  19,  1012.  day,levels,pres0
   182.092   991.250   298.089    17.056     0.686     2.848
   595.043   945.500   298.975    15.447     0.243     2.737
  1081.397   893.790   301.311    13.280    -0.311     1.065
  1653.416   836.060   304.729    11.184    -1.139     0.081
  2320.152   772.820   308.297     9.122    -2.271     0.641
  3085.066   705.220   311.764     6.536    -3.722     2.542
  3945.155   635.050   315.298     4.902    -4.962     2.585
  4892.900   564.480   319.832     3.985    -5.036     0.802
  5916.195   495.730   325.131     2.115    -2.873     0.627
  6997.447   430.710   329.763     1.021    -2.281     1.783
  8116.250   370.780   333.318     0.779    -4.873     0.791
  9255.031   316.720   337.302     0.361    -7.607    -1.172
 10397.953   268.820   340.065     0.138    -8.941    -0.444
 11531.556   226.980   342.925     0.061   -10.596     0.961
 12649.236   190.820   346.580     0.027   -11.809     1.711
 13747.042   159.870   351.660     0.013    -9.758     3.396
 14823.585   133.550   357.219     0.006    -6.114     2.401
 15883.536   111.290   368.071     0.004    -7.325    -0.246
 16947.711    92.560   391.496     0.006    -7.431     0.112
 245.,  19,  1012.  day,levels,pres0
   182.076   991.250   298.036    17.208     0.911     2.215
   595.009   945.500   298.949    15.590     0.793     2.107
  1081.409   893.790   301.342    13.436    -0.015     0.810
  1653.613   836.060   304.875    11.141    -1.712    -0.055
  2320.645   772.820   308.477     8.877    -3.307     0.499
  3085.783   705.220   311.854     6.307    -4.448     1.964
  3945.877   635.050   315.260     4.871    -5.202     1.755
  4893.643   564.480   319.898     3.955    -5.543    -0.255
  5917.299   495.730   325.322     2.005    -3.426    -0.615
  6998.564   430.710   329.603     0.984    -2.902     0.840
  8116.456   370.780   332.936     0.806    -5.611     0.645
  9254.067   316.720   336.990     0.370    -8.262    -0.432
